#                      Published-Value                            
#      Spectral-axis           Intensity         Uncertainty    
#             [km/s]    [Temp. (K*0.01)]    [Temp. (K*0.01)]      
             1819.17             -1.7273                          
             1821.99             -1.8863                          
             1824.79             -1.9657                          
              1827.6             -2.0451                          
             1830.41             -2.1245                          
             1833.21             -2.2039                          
             1836.01             -2.2037                          
             1838.82             -2.2831                          
             1841.63             -2.4421                          
             1844.43             -2.4419                          
             1847.21             -2.2822                          
                1850             -2.2023                          
             1852.76             -1.9629                          
             1855.53             -1.7236                          
             1858.32             -1.6437                          
             1861.13             -1.7231                          
             1863.94             -1.8822                          
             1866.78             -2.2006                          
              1869.6             -2.3597                          
             1872.41             -2.5188                          
             1875.21             -2.5185                          
             1877.98             -2.2792                          
             1880.76             -2.1195                          
             1883.53             -1.9599                          
              1886.3             -1.7206                          
             1889.09             -1.6406                          
             1891.88             -1.5607                          
             1894.65              -1.401                          
             1897.45             -1.4007                          
             1900.26             -1.4801                          
             1903.06             -1.5595                          
             1905.88             -1.7186                          
              1908.7             -1.8777                          
             1911.51             -1.9571                          
              1914.3             -1.9568                          
             1917.09             -1.8769                          
             1919.87             -1.7172                          
             1922.65             -1.6373                          
             1925.43             -1.4776                          
              1928.2             -1.2383                          
             1930.99             -1.1583                          
             1933.78             -1.0784                          
             1936.57             -1.0781                          
             1939.38             -1.1575                          
              1942.2             -1.3166                          
             1945.02             -1.5554                          
             1947.84             -1.7144                          
             1950.67             -1.9532                          
             1953.48             -2.1123                          
             1956.29             -2.1917                          
             1959.08             -2.1117                          
             1961.86             -2.0318                          
             1964.64             -1.8721                          
             1967.42             -1.7125                          
             1970.21             -1.6325                          
             1973.01             -1.7119                          
             1975.82             -1.7913                          
             1978.63             -1.8707                          
             1981.43             -1.9501                          
             1984.23             -1.9499                          
             1987.01             -1.7902                          
             1989.79             -1.6306                          
             1992.58             -1.6303                          
             1995.38               -1.63                          
             1998.18             -1.6298                          
                2001             -1.7888                          
             2003.81             -1.9479                          
             2006.62             -2.0273                          
             2009.42              -2.027                          
             2012.21             -2.0267                          
             2015.02             -2.1061                          
             2017.85             -2.3449                          
             2020.66              -2.504                          
             2023.49             -2.7428                          
             2026.29             -2.7425                          
             2029.08             -2.7422                          
             2031.87             -2.6622                          
             2034.63             -2.3432                          
             2037.41             -2.1836                          
             2040.18             -1.9443                          
             2042.95             -1.7847                          
             2045.74             -1.7047                          
             2048.54             -1.7044                          
             2051.36             -1.9432                          
              2054.2             -2.2616                          
             2057.03             -2.5004                          
             2059.85             -2.7391                          
             2062.67             -2.8982                          
             2065.47             -2.8979                          
             2068.24             -2.7383                          
             2071.02             -2.5787                          
             2073.79             -2.3394                          
             2076.56                -2.1                          
             2079.35             -2.0201                          
             2082.13             -1.9401                          
             2084.94             -2.0195                          
             2087.77             -2.2583                          
             2090.58             -2.4173                          
             2093.38             -2.4171                          
             2096.17             -2.3371                          
             2098.94             -2.0978                          
              2101.7             -1.8585                          
             2104.49             -1.7785                          
             2107.31             -1.9376                          
             2110.13             -2.1764                          
             2112.96             -2.4151                          
             2115.79             -2.6539                          
             2118.59             -2.7333                          
             2121.38             -2.6533                          
             2124.18             -2.6531                          
             2126.98             -2.6528                          
             2129.76             -2.5728                          
             2132.55             -2.4929                          
             2135.35             -2.4926                          
             2138.14             -2.4923                          
             2140.94              -2.492                          
             2143.76             -2.6511                          
             2146.58             -2.8102                          
             2149.38             -2.8896                          
             2152.19              -2.969                          
                2155             -3.0484                          
             2157.79             -3.0481                          
             2160.58             -2.9682                          
             2163.35             -2.7288                          
              2166.1             -2.3302                          
             2168.86             -2.0112                          
             2171.59             -1.5328                          
             2174.35             -1.2138                          
             2177.06             -0.4964                          
             2179.81             -0.0977                          
             2182.56               0.301                          
             2185.31              0.6997                          
             2188.05              1.0983                          
             2190.81              1.4173                          
             2193.54              1.9754                          
             2196.26              2.6131                          
             2198.95              3.4899                          
              2201.7              3.8885                          
             2204.44              4.3669                          
             2207.15              5.0046                          
             2209.82              6.0407                          
             2212.56              6.5191                          
             2215.33              6.7584                          
             2218.08              7.1571                          
             2220.85              7.3964                          
             2223.61              7.7154                          
             2226.38              7.8751                          
             2229.15              8.1143                          
             2231.92              8.3537                          
             2234.68              8.6727                          
             2237.43              8.9917                          
             2240.17                9.47                          
             2242.94              9.7094                          
             2245.69              10.108                          
             2248.43             10.5864                          
              2251.2             10.8257                          
             2253.94             11.2244                          
             2256.71             11.4637                          
             2259.49             11.6234                          
             2262.29             11.6236                          
             2265.09             11.5443                          
              2267.9             11.4648                          
             2270.71             11.3855                          
             2273.51              11.306                          
             2276.32             11.2267                          
             2279.12             11.2269                          
             2281.92             11.2272                          
             2284.71             11.2275                          
             2287.52             11.1481                          
             2290.37             10.7499                          
             2293.19             10.5112                          
             2296.02             10.2724                          
             2298.84             10.1134                          
             2301.65              9.9542                          
             2304.49              9.6358                          
             2307.32              9.3174                          
             2310.15              9.0786                          
             2312.96              8.9992                          
             2315.78              8.8401                          
             2318.59               8.681                          
             2321.41               8.522                          
             2324.22              8.4426                          
             2327.04              8.2038                          
             2329.85              8.1244                          
             2332.65              8.1247                          
             2335.45              8.0453                          
             2338.25              8.0456                          
             2341.07              7.8865                          
             2343.87              7.8071                          
             2346.68              7.7277                          
             2349.48               7.728                          
             2352.27              7.8079                          
             2355.04              7.9676                          
              2357.8              8.2865                          
             2360.56              8.6056                          
             2363.32              8.9245                          
             2366.09              9.1639                          
             2368.84              9.4828                          
              2371.6              9.8019                          
             2374.37             10.0412                          
             2377.15             10.2009                          
             2379.91             10.4401                          
             2382.67             10.7592                          
             2385.43             11.0781                          
             2388.19             11.3972                          
             2390.95             11.7161                          
             2393.69             12.1945                          
             2396.42             12.6729                          
             2399.16             13.1513                          
             2401.93             13.3905                          
             2404.69             13.7096                          
             2407.46             13.9489                          
             2410.22             14.1882                          
             2413.02             14.1885                          
             2415.82             14.1888                          
             2418.62             14.1093                          
             2421.41             14.1893                          
              2424.2             14.2693                          
             2426.98             14.4289                          
             2429.75             14.5885                          
             2432.52             14.8279                          
             2435.28             15.1468                          
             2438.06             15.3065                          
             2440.86             15.3068                          
             2443.66             15.2274                          
             2446.49             14.9886                          
             2449.36             14.3515                          
             2452.26             13.5549                          
             2455.11             13.1568                          
             2458.04             12.0415                          
             2460.92             11.4044                          
             2463.84             10.3688                          
             2466.74              9.4927                          
             2469.68              8.3774                          
             2472.59              7.4215                          
             2475.53              6.3062                          
             2478.45              5.2707                          
             2481.37              4.3148                          
             2484.28              3.3589                          
              2487.2              2.3234                          
             2490.12              1.3675                          
                2493              0.6506                          
             2495.86              0.1728                          
             2498.72              -0.305                          
             2501.56             -0.7031                          
             2504.45               -1.42                          
             2507.29             -1.8181                          
              2510.1             -1.8975                          
             2512.94             -2.2159                          
             2515.76             -2.4547                          
             2518.58             -2.6138                          
             2521.39             -2.6932                          
             2524.17             -2.6132                          
             2526.98             -2.6926                          
             2529.76              -2.533                          
             2532.55              -2.453                          
             2535.32             -2.2934                          
             2538.11             -2.2134                          
             2540.91             -2.2131                          
              2543.7             -2.1332                          
             2546.49             -2.1329                          
             2549.29             -2.1326                          
             2552.09             -2.1323                          
             2554.88             -2.1321                          
             2557.67             -2.0521                          
             2560.46             -1.9722                          
             2563.25             -1.8922                          
             2566.03             -1.8122                          
             2568.81             -1.6526                          
              2571.6             -1.5726                          
             2574.39             -1.4927                          
             2577.18             -1.4924                          
             2579.99             -1.5718                          
             2582.81             -1.7309                          
             2585.61             -1.8103                          
             2588.44              -2.049                          
             2591.26             -2.2081                          
             2594.07             -2.3672                          
             2596.89             -2.5263                          
              2599.7             -2.6057                          
              2602.5             -2.6054                          
             2605.29             -2.6051                          
             2608.09             -2.6049                          
             2610.89             -2.6046                          
             2613.67             -2.5246                          
             2616.45              -2.365                          
             2619.22             -2.1257                          
             2621.99             -1.8863                          
             2624.76              -1.647                          
             2627.53             -1.4874                          
             2630.29             -1.1684                          
             2633.08             -1.0884                          
             2635.89             -1.1678                          
              2638.7             -1.3269                          
             2641.53             -1.5657                          
             2644.36             -1.8841                          
             2647.17             -1.9635                          
             2649.98             -2.0429                          
              2652.8              -2.202                          
              2655.6             -2.2814                          
             2658.39             -2.2014                          
             2661.19             -2.2012                          
             2663.98             -2.2009                          
             2666.77             -2.1209                          
             2669.57             -2.1206                          
             2672.36             -2.0407                          
             2675.15             -2.0404                          
             2677.96             -2.1198                          
             2680.76             -2.1195                          
             2683.56             -2.1989                          
             2686.37             -2.2783                          
             2689.18             -2.3577                          
             2691.98             -2.4371                          
             2694.79             -2.5165                          
             2697.59             -2.5163                          
             2700.39              -2.516                          
             2703.18             -2.5157                          
             2705.97             -2.4357                          
             2708.74             -2.1964                          
             2711.51             -1.9571                          
             2714.27             -1.7178                          
             2717.05             -1.5581                          
             2719.85             -1.5579                          
             2722.67             -1.7169                          
             2725.48              -1.876                          
             2728.31             -2.1148                          
             2731.14             -2.3535                          
             2733.95             -2.5126                          
             2736.76              -2.592                          
             2739.56             -2.5918                          
             2742.35             -2.5915                          
             2745.15             -2.5912                          
             2747.94             -2.5112                          
             2750.74              -2.511                          
             2753.54             -2.5904                          
             2756.35             -2.6698                          
             2759.17             -2.8289                          
             2761.96             -2.8286                          
             2764.77              -2.908                          
             2767.56              -2.828                          
             2770.34             -2.7481                          
             2773.12             -2.5884                          
             2775.89             -2.3491                          
             2778.67             -2.1895                          
             2781.45             -2.0298                          
             2784.23             -1.9499                          
             2787.03             -1.9496                          
             2789.86             -2.1883                          
             2792.68             -2.4271                          
              2795.5             -2.5862                          
              2798.3             -2.5859                          
             2801.13             -2.9043                          
             2803.92             -2.8244                          
             2806.71             -2.7444                          
             2809.49             -2.5848                          
             2812.28             -2.5845                          
             2815.07             -2.5046                          
             2817.85             -2.3449                          
             2820.65             -2.3446                          
             2823.44             -2.3444                          
             2826.25             -2.4238                          
             2829.05             -2.4235                          
             2831.85             -2.5029                          
             2834.64             -2.4229                          
             2837.45             -2.5023                          
             2840.24             -2.4224                          
             2842.99             -2.1034                          
             2845.75             -1.7844                          
             2848.54             -1.7044                          
             2851.33             -1.6244                          
             2854.12             -1.6242                          
             2856.93             -1.7036                          
             2859.77              -2.022                          
             2862.59             -2.2608                          
             2865.43             -2.5792                          
             2868.25             -2.7383                          
             2871.06             -2.8974                          
